time,intensity
0.931,0.03
8.381,0.08
13.223,0.22
23.653,0.24
31.475,0.34
40.414,0.33
43.394,0.44
50.099,0.44
54.196,0.44
61.273,0.97
72.075,0.98
80.270,0.26
89.209,0.25
96.659,0.35
104.853,0.36
110.068,0.01
118.635,0.10
131.300,0.23
139.122,0.28
144.709,0.98
165.940,0.99
175.252,0.03
207.286,0.30
212.501,0.03
228.517,0.13
232.615,0.98
252.356,0.99
260.923,0.13
279.175,0.03
296.681,0.00
